IGOR // wavelength 1.23680A
WAVES/O wave0, wave1, sqrt_of_wave1
BEGIN
  4.50    9119   95.49
  4.51    9018   94.96
  4.52    9107   95.43
  4.53    8993   94.83
  4.54    9100   95.39
  4.55    9024   94.99
  4.56    9088   95.33
  4.57    9021   94.98
  4.58    8990   94.82
  4.59    8936   94.53
  4.60    9076   95.27
  4.61    9047   95.12
  4.62    8952   94.62
  4.63    8945   94.58
  4.64    9021   94.98
  4.65    9034   95.05
  4.66    8999   94.86
  4.67    9045   95.11
  4.68    9029   95.02
  4.69    8974   94.73
  4.70    9008   94.91
  4.71    8916   94.42
  4.72    9020   94.97
  4.73    8883   94.25
  4.74    9019   94.97
  4.75    9067   95.22
  4.76    9125   95.52
  4.77    9092   95.35
  4.78    9037   95.06
  4.79    8958   94.65
  4.80    8952   94.62
  4.81    8912   94.40
  4.82    8949   94.60
  4.83    9051   95.14
  4.84    9175   95.79
  4.85    9042   95.09
  4.86    8987   94.80
  4.87    8941   94.56
  4.88    9067   95.22
  4.89    9119   95.49
  4.90    9212   95.98
  4.91    9008   94.91
  4.92    9115   95.47
  4.93    8947   94.59
  4.94    9042   95.09
  4.95    9204   95.94
  4.96    9148   95.65
  4.97    9047   95.12
  4.98    9229   96.07
  4.99    9007   94.91
  5.00    9158   95.70
  5.01    9125   95.52
  5.02    9185   95.84
  5.03    9133   95.57
  5.04    9209   95.96
  5.05    9060   95.18
  5.06    9118   95.49
  5.07    9055   95.16
  5.08    9110   95.45
  5.09    9159   95.70
  5.10    8935   94.53
  5.11    9077   95.27
  5.12    9069   95.23
  5.13    9194   95.89
  5.14    9235   96.10
  5.15    9034   95.05
  5.16    9017   94.96
  5.17    8999   94.86
  5.18    9226   96.05
  5.19    9177   95.80
  5.20    9171   95.77
  5.21    9085   95.32
  5.22    9240   96.12
  5.23    9034   95.05
  5.24    9238   96.11
  5.25    9105   95.42
  5.26    9054   95.15
  5.27    9147   95.64
  5.28    9041   95.08
  5.29    9173   95.78
  5.30    9152   95.67
  5.31    9166   95.74
  5.32    9159   95.70
  5.33    8944   94.57
  5.34    9281   96.34
  5.35    9127   95.54
  5.36    9075   95.26
  5.37    9245   96.15
  5.38    9088   95.33
  5.39    9110   95.45
  5.40    9127   95.54
  5.41    9097   95.38
  5.42    9122   95.51
  5.43    9272   96.29
  5.44    9050   95.13
  5.45    9120   95.50
  5.46    9350   96.70
  5.47    9218   96.01
  5.48    9086   95.32
  5.49    9152   95.67
  5.50    9237   96.11
  5.51    9071   95.24
  5.52    8962   94.67
  5.53    9182   95.82
  5.54    9199   95.91
  5.55    9134   95.57
  5.56    9134   95.57
  5.57    9190   95.86
  5.58    9148   95.65
  5.59    9034   95.05
  5.60    9169   95.75
  5.61    9179   95.81
  5.62    9266   96.26
  5.63    9243   96.14
  5.64    9135   95.58
  5.65    9322   96.55
  5.66    9085   95.32
  5.67    8995   94.84
  5.68    9024   94.99
  5.69    9023   94.99
  5.70    9012   94.93
  5.71    9116   95.48
  5.72    9177   95.80
  5.73    9291   96.39
  5.74    9025   95.00
  5.75    9129   95.55
  5.76    9105   95.42
  5.77    9057   95.17
  5.78    9079   95.28
  5.79    9138   95.59
  5.80    9271   96.29
  5.81    9098   95.38
  5.82    9146   95.63
  5.83    9015   94.95
  5.84    9073   95.25
  5.85    9066   95.22
  5.86    9145   95.63
  5.87    9057   95.17
  5.88    9176   95.79
  5.89    9219   96.02
  5.90    9251   96.18
  5.91    9148   95.65
  5.92    9185   95.84
  5.93    9198   95.91
  5.94    9165   95.73
  5.95    9089   95.34
  5.96    9077   95.27
  5.97    9224   96.04
  5.98    9266   96.26
  5.99    9101   95.40
  6.00    9200   95.92
  6.01    9180   95.81
  6.02    9113   95.46
  6.03    9135   95.58
  6.04    9113   95.46
  6.05    9093   95.36
  6.06    9214   95.99
  6.07    9021   94.98
  6.08    9022   94.98
  6.09    9143   95.62
  6.10    9083   95.30
  6.11    9225   96.05
  6.12    9197   95.90
  6.13    9148   95.65
  6.14    9072   95.25
  6.15    9155   95.68
  6.16    9114   95.47
  6.17    9106   95.43
  6.18    9196   95.90
  6.19    9145   95.63
  6.20    9061   95.19
  6.21    9128   95.54
  6.22    9062   95.19
  6.23    9015   94.95
  6.24    9143   95.62
  6.25    9206   95.95
  6.26    9172   95.77
  6.27    9113   95.46
  6.28    9173   95.78
  6.29    9195   95.89
  6.30    9116   95.48
  6.31    9159   95.70
  6.32    9277   96.32
  6.33    9165   95.73
  6.34    9267   96.27
  6.35    9155   95.68
  6.36    8963   94.67
  6.37    9006   94.90
  6.38    9037   95.06
  6.39    9274   96.30
  6.40    9163   95.72
  6.41    9139   95.60
  6.42    9293   96.40
  6.43    9221   96.03
  6.44    9277   96.32
  6.45    9210   95.97
  6.46    9198   95.91
  6.47    9290   96.38
  6.48    9291   96.39
  6.49    9321   96.55
  6.50    9384   96.87
  6.51    9368   96.79
  6.52    9440   97.16
  6.53    9303   96.45
  6.54    9415   97.03
  6.55    9414   97.03
  6.56    9448   97.20
  6.57    9346   96.67
  6.58    9367   96.78
  6.59    9501   97.47
  6.60    9471   97.32
  6.61    9490   97.42
  6.62    9548   97.71
  6.63    9467   97.30
  6.64    9652   98.24
  6.65    9898   99.49
  6.66    9842   99.21
  6.67    9915   99.57
  6.68   10089  100.44
  6.69   10387  101.92
  6.70   10634  103.12
  6.71   11050  105.12
  6.72   11770  108.49
  6.73   13008  114.05
  6.74   15066  122.74
  6.75   19091  138.17
  6.76   25586  159.96
  6.77   35551  188.55
  6.78   49093  221.57
  6.79   61669  248.33
  6.80   69312  263.27
  6.81   66122  257.14
  6.82   53865  232.09
  6.83   39113  197.77
  6.84   26493  162.77
  6.85   18494  135.99
  6.86   14499  120.41
  6.87   12309  110.95
  6.88   11026  105.00
  6.89   10597  102.94
  6.90   10402  101.99
  6.91    9923   99.61
  6.92    9775   98.87
  6.93    9720   98.59
  6.94    9744   98.71
  6.95    9571   97.83
  6.96    9536   97.65
  6.97    9427   97.09
  6.98    9476   97.34
  6.99    9458   97.25
  7.00    9341   96.65
  7.01    9276   96.31
  7.02    9276   96.31
  7.03    9198   95.91
  7.04    9249   96.17
  7.05    9341   96.65
  7.06    9198   95.91
  7.07    9365   96.77
  7.08    9272   96.29
  7.09    9392   96.91
  7.10    9297   96.42
  7.11    9244   96.15
  7.12    9209   95.96
  7.13    9306   96.47
  7.14    9206   95.95
  7.15    9417   97.04
  7.16    9436   97.14
  7.17    9217   96.01
  7.18    9152   95.67
  7.19    9242   96.14
  7.20    9136   95.58
  7.21    9270   96.28
  7.22    9166   95.74
  7.23    9263   96.24
  7.24    9332   96.60
  7.25    9167   95.74
  7.26    9247   96.16
  7.27    9198   95.91
  7.28    9269   96.28
  7.29    9245   96.15
  7.30    9195   95.89
  7.31    9303   96.45
  7.32    9232   96.08
  7.33    9220   96.02
  7.34    9308   96.48
  7.35    9202   95.93
  7.36    9232   96.08
  7.37    9338   96.63
  7.38    9261   96.23
  7.39    9241   96.13
  7.40    9127   95.54
  7.41    9160   95.71
  7.42    9182   95.82
  7.43    9175   95.79
  7.44    9352   96.71
  7.45    9313   96.50
  7.46    9255   96.20
  7.47    9166   95.74
  7.48    9202   95.93
  7.49    9178   95.80
  7.50    9195   95.89
  7.51    9272   96.29
  7.52    9209   95.96
  7.53    9315   96.51
  7.54    9298   96.43
  7.55    9325   96.57
  7.56    9379   96.85
  7.57    9252   96.19
  7.58    9242   96.14
  7.59    9287   96.37
  7.60    9259   96.22
  7.61    9166   95.74
  7.62    9274   96.30
  7.63    9256   96.21
  7.64    9239   96.12
  7.65    9348   96.69
  7.66    9254   96.20
  7.67    9186   95.84
  7.68    9308   96.48
  7.69    9289   96.38
  7.70    9309   96.48
  7.71    9224   96.04
  7.72    9301   96.44
  7.73    9141   95.61
  7.74    9201   95.92
  7.75    9127   95.54
  7.76    9115   95.47
  7.77    9047   95.12
  7.78    9148   95.65
  7.79    9178   95.80
  7.80    9293   96.40
  7.81    9142   95.61
  7.82    9255   96.20
  7.83    9324   96.56
  7.84    9260   96.23
  7.85    9252   96.19
  7.86    9264   96.25
  7.87    9189   95.86
  7.88    9215   95.99
  7.89    9208   95.96
  7.90    9187   95.85
  7.91    9188   95.85
  7.92    9335   96.62
  7.93    9190   95.86
  7.94    9192   95.87
  7.95    9244   96.15
  7.96    9228   96.06
  7.97    9274   96.30
  7.98    9214   95.99
  7.99    9258   96.22
  8.00    9258   96.22
  8.01    9260   96.23
  8.02    9149   95.65
  8.03    9293   96.40
  8.04    9335   96.62
  8.05    9210   95.97
  8.06    9038   95.07
  8.07    9243   96.14
  8.08    9179   95.81
  8.09    9219   96.02
  8.10    9188   95.85
  8.11    9275   96.31
  8.12    9321   96.55
  8.13    9187   95.85
  8.14    9214   95.99
  8.15    9160   95.71
  8.16    9114   95.47
  8.17    9128   95.54
  8.18    9323   96.56
  8.19    9301   96.44
  8.20    9316   96.52
  8.21    9253   96.19
  8.22    9114   95.47
  8.23    9303   96.45
  8.24    9216   96.00
  8.25    9121   95.50
  8.26    9142   95.61
  8.27    9209   95.96
  8.28    9300   96.44
  8.29    9253   96.19
  8.30    9254   96.20
  8.31    9267   96.27
  8.32    9093   95.36
  8.33    9265   96.25
  8.34    9227   96.06
  8.35    9207   95.95
  8.36    9330   96.59
  8.37    9260   96.23
  8.38    9154   95.68
  8.39    9198   95.91
  8.40    9202   95.93
  8.41    9160   95.71
  8.42    9185   95.84
  8.43    9191   95.87
  8.44    9154   95.68
  8.45    9150   95.66
  8.46    9263   96.24
  8.47    9327   96.58
  8.48    9040   95.08
  8.49    9259   96.22
  8.50    9260   96.23
  8.51    9362   96.76
  8.52    9281   96.34
  8.53    9243   96.14
  8.54    9137   95.59
  8.55    9271   96.29
  8.56    9293   96.40
  8.57    9229   96.07
  8.58    9269   96.28
  8.59    9191   95.87
  8.60    9171   95.77
  8.61    9350   96.70
  8.62    9287   96.37
  8.63    9227   96.06
  8.64    9409   97.00
  8.65    9190   95.86
  8.66    9201   95.92
  8.67    9147   95.64
  8.68    9207   95.95
  8.69    9259   96.22
  8.70    9283   96.35
  8.71    9235   96.10
  8.72    9284   96.35
  8.73    9233   96.09
  8.74    9209   95.96
  8.75    9230   96.07
  8.76    9212   95.98
  8.77    9160   95.71
  8.78    9331   96.60
  8.79    9366   96.78
  8.80    9331   96.60
  8.81    9162   95.72
  8.82    9302   96.45
  8.83    9318   96.53
  8.84    9179   95.81
  8.85    9255   96.20
  8.86    9286   96.36
  8.87    9269   96.28
  8.88    9264   96.25
  8.89    9155   95.68
  8.90    9240   96.12
  8.91    9345   96.67
  8.92    9317   96.52
  8.93    9379   96.85
  8.94    9416   97.04
  8.95    9225   96.05
  8.96    9339   96.64
  8.97    9351   96.70
  8.98    9407   96.99
  8.99    9276   96.31
  9.00    9407   96.99
  9.01    9405   96.98
  9.02    9327   96.58
  9.03    9444   97.18
  9.04    9460   97.26
  9.05    9344   96.66
  9.06    9406   96.98
  9.07    9279   96.33
  9.08    9342   96.65
  9.09    9518   97.56
  9.10    9526   97.60
  9.11    9487   97.40
  9.12    9433   97.12
  9.13    9570   97.83
  9.14    9477   97.35
  9.15    9561   97.78
  9.16    9677   98.37
  9.17    9527   97.61
  9.18    9697   98.47
  9.19    9485   97.39
  9.20    9611   98.04
  9.21    9757   98.78
  9.22    9646   98.21
  9.23    9690   98.44
  9.24    9677   98.37
  9.25    9664   98.31
  9.26    9586   97.91
  9.27    9723   98.61
  9.28    9800   98.99
  9.29    9620   98.08
  9.30    9784   98.91
  9.31    9943   99.71
  9.32    9831   99.15
  9.33    9991   99.95
  9.34   10030  100.15
  9.35   10211  101.05
  9.36   10222  101.10
  9.37   10362  101.79
  9.38   10372  101.84
  9.39   10520  102.57
  9.40   10774  103.80
  9.41   10919  104.49
  9.42   11140  105.55
  9.43   11347  106.52
  9.44   11785  108.56
  9.45   12379  111.26
  9.46   13016  114.09
  9.47   13866  117.75
  9.48   15139  123.04
  9.49   17231  131.27
  9.50   20281  142.41
  9.51   25239  158.87
  9.52   33833  183.94
  9.53   47201  217.26
  9.54   67758  260.30
  9.55   94703  307.74
  9.56  124019  352.16
  9.57  141633  376.34
  9.58  138499  372.15
  9.59  117099  342.20
  9.60   94822  307.93
  9.61   83895  289.65
  9.62   93866  306.38
  9.63  125661  354.49
  9.64  172783  415.67
  9.65  209180  457.36
  9.66  208786  456.93
  9.67  167820  409.66
  9.68  114071  337.74
  9.69   67959  260.69
  9.70   40097  200.24
  9.71   25499  159.68
  9.72   18830  137.22
  9.73   15517  124.57
  9.74   13480  116.10
  9.75   12260  110.72
  9.76   11369  106.63
  9.77   10891  104.36
  9.78   10694  103.41
  9.79   10268  101.33
  9.80   10008  100.04
  9.81    9926   99.63
  9.82    9787   98.93
  9.83    9859   99.29
  9.84    9754   98.76
  9.85    9543   97.69
  9.86    9311   96.49
  9.87    9333   96.61
  9.88    9213   95.98
  9.89    9165   95.73
  9.90    9294   96.41
  9.91    9227   96.06
  9.92    9210   95.97
  9.93    9369   96.79
  9.94    9488   97.41
  9.95    9241   96.13
  9.96    9133   95.57
  9.97    9279   96.33
  9.98    9083   95.30
  9.99    9185   95.84
 10.00    9014   94.94
 10.01    9151   95.66
 10.02    9093   95.36
 10.03    9179   95.81
 10.04    9106   95.43
 10.05    9316   96.52
 10.06    9079   95.28
 10.07    8963   94.67
 10.08    8913   94.41
 10.09    9042   95.09
 10.10    8925   94.47
 10.11    8875   94.21
 10.12    8889   94.28
 10.13    8967   94.69
 10.14    8949   94.60
 10.15    8835   93.99
 10.16    8734   93.46
 10.17    8868   94.17
 10.18    8881   94.24
 10.19    8988   94.81
 10.20    8814   93.88
 10.21    8976   94.74
 10.22    8845   94.05
 10.23    8807   93.85
 10.24    8876   94.21
 10.25    8779   93.70
 10.26    8863   94.14
 10.27    8714   93.35
 10.28    8892   94.30
 10.29    8889   94.28
 10.30    8859   94.12
 10.31    8902   94.35
 10.32    8925   94.47
 10.33    8858   94.12
 10.34    8884   94.25
 10.35    8731   93.44
 10.36    8809   93.86
 10.37    8767   93.63
 10.38    8800   93.81
 10.39    8773   93.66
 10.40    9106   95.43
 10.41    8965   94.68
 10.42    8833   93.98
 10.43    8754   93.56
 10.44    8826   93.95
 10.45    8656   93.04
 10.46    8874   94.20
 10.47    8878   94.22
 10.48    8941   94.56
 10.49    9007   94.91
 10.50    8903   94.36
 10.51    8887   94.27
 10.52    8866   94.16
 10.53    8887   94.27
 10.54    9027   95.01
 10.55    9247   96.16
 10.56    9409   97.00
 10.57    9518   97.56
 10.58    9673   98.35
 10.59    9578   97.87
 10.60    9624   98.10
 10.61    9704   98.51
 10.62    9530   97.62
 10.63    9667   98.32
 10.64    9871   99.35
 10.65   10314  101.56
 10.66   11105  105.38
 10.67   12209  110.49
 10.68   13537  116.35
 10.69   14412  120.05
 10.70   14509  120.45
 10.71   13490  116.15
 10.72   12071  109.87
 10.73   10658  103.24
 10.74    9980   99.90
 10.75    9454   97.23
 10.76    9230   96.07
 10.77    9022   94.98
 10.78    8953   94.62
 10.79    8789   93.75
 10.80    8845   94.05
 10.81    8755   93.57
 10.82    8589   92.68
 10.83    8651   93.01
 10.84    8753   93.56
 10.85    8647   92.99
 10.86    8716   93.36
 10.87    8653   93.02
 10.88    8604   92.76
 10.89    8637   92.94
 10.90    8616   92.82
 10.91    8699   93.27
 10.92    8622   92.85
 10.93    8620   92.84
 10.94    8583   92.64
 10.95    8560   92.52
 10.96    8649   93.00
 10.97    8647   92.99
 10.98    8538   92.40
 10.99    8610   92.79
 11.00    8667   93.10
 11.01    8660   93.06
 11.02    8554   92.49
 11.03    8700   93.27
 11.04    8598   92.73
 11.05    8696   93.25
 11.06    8684   93.19
 11.07    8736   93.47
 11.08    8538   92.40
 11.09    8420   91.76
 11.10    8598   92.73
 11.11    8585   92.66
 11.12    8696   93.25
 11.13    8706   93.31
 11.14    8726   93.41
 11.15    8630   92.90
 11.16    8711   93.33
 11.17    8606   92.77
 11.18    8630   92.90
 11.19    8644   92.97
 11.20    8525   92.33
 11.21    8470   92.03
 11.22    8574   92.60
 11.23    8570   92.57
 11.24    8502   92.21
 11.25    8660   93.06
 11.26    8721   93.39
 11.27    8733   93.45
 11.28    8660   93.06
 11.29    8597   92.72
 11.30    8523   92.32
 11.31    8484   92.11
 11.32    8359   91.43
 11.33    8411   91.71
 11.34    8447   91.91
 11.35    8478   92.08
 11.36    8429   91.81
 11.37    8626   92.88
 11.38    8681   93.17
 11.39    8490   92.14
 11.40    8521   92.31
 11.41    8435   91.84
 11.42    8383   91.56
 11.43    8537   92.40
 11.44    8557   92.50
 11.45    8471   92.04
 11.46    8495   92.17
 11.47    8613   92.81
 11.48    8566   92.55
 11.49    8508   92.24
 11.50    8467   92.02
 11.51    8475   92.06
 11.52    8582   92.64
 11.53    8578   92.62
 11.54    8521   92.31
 11.55    8560   92.52
 11.56    8545   92.44
 11.57    8650   93.01
 11.58    8656   93.04
 11.59    8585   92.66
 11.60    8496   92.17
 11.61    8464   92.00
 11.62    8600   92.74
 11.63    8570   92.57
 11.64    8606   92.77
 11.65    8540   92.41
 11.66    8536   92.39
 11.67    8669   93.11
 11.68    8711   93.33
 11.69    8623   92.86
 11.70    8634   92.92
 11.71    8536   92.39
 11.72    8530   92.36
 11.73    8575   92.60
 11.74    8516   92.28
 11.75    8576   92.61
 11.76    8566   92.55
 11.77    8772   93.66
 11.78    8742   93.50
 11.79    8719   93.38
 11.80    8692   93.23
 11.81    8743   93.50
 11.82    8578   92.62
 11.83    8603   92.75
 11.84    8544   92.43
 11.85    8859   94.12
 11.86    8706   93.31
 11.87    8685   93.19
 11.88    8686   93.20
 11.89    8777   93.69
 11.90    8832   93.98
 11.91    8910   94.39
 11.92    9223   96.04
 11.93    9154   95.68
 11.94    9274   96.30
 11.95    9280   96.33
 11.96    9194   95.89
 11.97    9082   95.30
 11.98    8911   94.40
 11.99    8821   93.92
 12.00    8865   94.15
 12.01    8763   93.61
 12.02    8829   93.96
 12.03    8727   93.42
 12.04    8789   93.75
 12.05    8712   93.34
 12.06    8778   93.69
 12.07    8620   92.84
 12.08    8595   92.71
 12.09    8676   93.15
 12.10    8635   92.92
 12.11    8648   92.99
 12.12    8819   93.91
 12.13    8642   92.96
 12.14    8637   92.94
 12.15    8694   93.24
 12.16    8601   92.74
 12.17    8773   93.66
 12.18    8639   92.95
 12.19    8702   93.28
 12.20    8613   92.81
 12.21    8613   92.81
 12.22    8650   93.01
 12.23    8811   93.87
 12.24    8632   92.91
 12.25    8680   93.17
 12.26    8641   92.96
 12.27    8684   93.19
 12.28    8664   93.08
 12.29    8752   93.55
 12.30    8798   93.80
 12.31    8634   92.92
 12.32    8691   93.23
 12.33    8647   92.99
 12.34    8667   93.10
 12.35    8667   93.10
 12.36    8830   93.97
 12.37    8627   92.88
 12.38    8658   93.05
 12.39    8577   92.61
 12.40    8863   94.14
 12.41    8643   92.97
 12.42    8838   94.01
 12.43    8634   92.92
 12.44    8611   92.80
 12.45    8623   92.86
 12.46    8647   92.99
 12.47    8719   93.38
 12.48    8644   92.97
 12.49    8586   92.66
 12.50    8672   93.12
 12.51    8796   93.79
 12.52    8675   93.14
 12.53    8530   92.36
 12.54    8616   92.82
 12.55    8708   93.32
 12.56    8595   92.71
 12.57    8729   93.43
 12.58    8588   92.67
 12.59    8640   92.95
 12.60    8650   93.01
 12.61    8685   93.19
 12.62    8739   93.48
 12.63    8757   93.58
 12.64    8641   92.96
 12.65    8804   93.83
 12.66    8592   92.69
 12.67    8683   93.18
 12.68    8654   93.03
 12.69    8703   93.29
 12.70    8672   93.12
 12.71    8747   93.53
 12.72    8782   93.71
 12.73    8705   93.30
 12.74    8933   94.51
 12.75    8717   93.36
 12.76    8789   93.75
 12.77    8854   94.10
 12.78    8794   93.78
 12.79    8729   93.43
 12.80    8805   93.83
 12.81    8855   94.10
 12.82    8857   94.11
 12.83    8853   94.09
 12.84    8856   94.11
 12.85    8956   94.64
 12.86    8803   93.82
 12.87    8766   93.63
 12.88    8825   93.94
 12.89    8979   94.76
 12.90    8825   93.94
 12.91    8814   93.88
 12.92    8795   93.78
 12.93    9019   94.97
 12.94    9086   95.32
 12.95    8987   94.80
 12.96    9021   94.98
 12.97    8853   94.09
 12.98    8830   93.97
 12.99    8949   94.60
 13.00    8769   93.64
 13.01    8888   94.28
 13.02    8908   94.38
 13.03    8964   94.68
 13.04    8874   94.20
 13.05    8935   94.53
 13.06    8934   94.52
 13.07    8814   93.88
 13.08    8806   93.84
 13.09    8858   94.12
 13.10    8859   94.12
 13.11    9070   95.24
 13.12    9133   95.57
 13.13    8971   94.72
 13.14    8965   94.68
 13.15    8908   94.38
