IGOR // wavelength 1.196175A
WAVES/O wave0, wave1, sqrt_of_wave1
BEGIN
 2.000     374   19.35
 2.005     362   19.03
 2.010     357   18.91
 2.015     363   19.05
 2.020     368   19.19
 2.025     371   19.27
 2.030     371   19.25
 2.035     373   19.31
 2.040     359   18.95
 2.045     367   19.16
 2.050     377   19.42
 2.055     366   19.14
 2.060     361   19.01
 2.065     393   19.82
 2.070     367   19.17
 2.075     366   19.14
 2.080     375   19.36
 2.085     355   18.85
 2.090     372   19.29
 2.095     377   19.41
 2.100     384   19.59
 2.105     399   19.98
 2.110     384   19.59
 2.115     386   19.64
 2.120     389   19.71
 2.125     382   19.54
 2.130     384   19.60
 2.135     385   19.63
 2.140     379   19.48
 2.145     395   19.87
 2.150     395   19.88
 2.155     391   19.78
 2.160     396   19.90
 2.165     393   19.83
 2.170     395   19.87
 2.175     402   20.05
 2.180     408   20.21
 2.185     394   19.86
 2.190     405   20.12
 2.195     410   20.24
 2.200     414   20.35
 2.205     393   19.82
 2.210     404   20.10
 2.215     414   20.34
 2.220     393   19.83
 2.225     398   19.94
 2.230     400   20.00
 2.235     397   19.92
 2.240     411   20.27
 2.245     405   20.11
 2.250     411   20.28
 2.255     416   20.39
 2.260     414   20.35
 2.265     423   20.56
 2.270     421   20.51
 2.275     404   20.10
 2.280     415   20.38
 2.285     416   20.39
 2.290     420   20.48
 2.295     414   20.34
 2.300     431   20.77
 2.305     405   20.12
 2.310     421   20.52
 2.315     420   20.50
 2.320     419   20.47
 2.325     415   20.37
 2.330     419   20.48
 2.335     446   21.12
 2.340     431   20.77
 2.345     422   20.54
 2.350     416   20.39
 2.355     423   20.58
 2.360     435   20.86
 2.365     435   20.86
 2.370     426   20.64
 2.375     442   21.03
 2.380     438   20.94
 2.385     430   20.73
 2.390     434   20.83
 2.395     440   20.97
 2.400     459   21.43
 2.405     426   20.64
 2.410     434   20.83
 2.415     461   21.46
 2.420     441   20.99
 2.425     431   20.76
 2.430     435   20.85
 2.435     429   20.71
 2.440     446   21.11
 2.445     423   20.56
 2.450     423   20.56
 2.455     438   20.93
 2.460     443   21.05
 2.465     438   20.92
 2.470     441   20.99
 2.475     444   21.08
 2.480     441   21.00
 2.485     436   20.88
 2.490     447   21.15
 2.495     438   20.92
 2.500     445   21.10
 2.505     458   21.41
 2.510     438   20.94
 2.515     436   20.88
 2.520     436   20.87
 2.525     437   20.90
 2.530     445   21.09
 2.535     444   21.08
 2.540     455   21.32
 2.545     459   21.42
 2.550     448   21.17
 2.555     448   21.17
 2.560     457   21.37
 2.565     453   21.28
 2.570     461   21.48
 2.575     473   21.74
 2.580     454   21.30
 2.585     450   21.22
 2.590     466   21.60
 2.595     466   21.59
 2.600     463   21.51
 2.605     465   21.56
 2.610     461   21.47
 2.615     452   21.25
 2.620     457   21.37
 2.625     462   21.50
 2.630     458   21.40
 2.635     470   21.68
 2.640     466   21.59
 2.645     455   21.33
 2.650     478   21.85
 2.655     472   21.74
 2.660     457   21.38
 2.665     465   21.56
 2.670     479   21.89
 2.675     495   22.24
 2.680     460   21.44
 2.685     454   21.31
 2.690     471   21.71
 2.695     466   21.59
 2.700     466   21.59
 2.705     478   21.86
 2.710     478   21.86
 2.715     467   21.60
 2.720     470   21.68
 2.725     486   22.05
 2.730     479   21.89
 2.735     491   22.17
 2.740     479   21.89
 2.745     465   21.57
 2.750     464   21.54
 2.755     477   21.85
 2.760     467   21.60
 2.765     465   21.56
 2.770     481   21.93
 2.775     471   21.71
 2.780     477   21.85
 2.785     488   22.08
 2.790     484   22.00
 2.795     472   21.72
 2.800     479   21.89
 2.805     489   22.12
 2.810     480   21.90
 2.815     493   22.20
 2.820     488   22.10
 2.825     476   21.81
 2.830     484   22.01
 2.835     484   22.00
 2.840     486   22.03
 2.845     499   22.33
 2.850     480   21.91
 2.855     488   22.09
 2.860     496   22.27
 2.865     490   22.13
 2.870     499   22.35
 2.875     503   22.43
 2.880     487   22.06
 2.885     499   22.34
 2.890     501   22.39
 2.895     498   22.32
 2.900     488   22.10
 2.905     509   22.56
 2.910     498   22.32
 2.915     491   22.15
 2.920     508   22.54
 2.925     503   22.44
 2.930     498   22.32
 2.935     491   22.15
 2.940     496   22.26
 2.945     494   22.23
 2.950     499   22.34
 2.955     490   22.14
 2.960     496   22.28
 2.965     510   22.58
 2.970     509   22.55
 2.975     490   22.13
 2.980     495   22.24
 2.985     504   22.46
 2.990     505   22.48
 2.995     487   22.07
 3.000     497   22.28
 3.005     516   22.72
 3.010     488   22.08
 3.015     503   22.43
 3.020     515   22.69
 3.025     505   22.47
 3.030     511   22.61
 3.035     512   22.62
 3.040     523   22.87
 3.045     524   22.89
 3.050     504   22.46
 3.055     492   22.18
 3.060     511   22.62
 3.065     502   22.41
 3.070     514   22.67
 3.075     505   22.48
 3.080     507   22.51
 3.085     509   22.55
 3.090     513   22.66
 3.095     534   23.11
 3.100     515   22.69
 3.105     515   22.70
 3.110     505   22.46
 3.115     511   22.60
 3.120     517   22.75
 3.125     507   22.51
 3.130     524   22.89
 3.135     521   22.83
 3.140     508   22.54
 3.145     514   22.67
 3.150     519   22.78
 3.155     516   22.72
 3.160     503   22.42
 3.165     520   22.81
 3.170     519   22.78
 3.175     493   22.20
 3.180     518   22.77
 3.185     522   22.86
 3.190     522   22.84
 3.195     518   22.76
 3.200     506   22.49
 3.205     517   22.74
 3.210     504   22.45
 3.215     496   22.28
 3.220     509   22.55
 3.225     507   22.52
 3.230     520   22.81
 3.235     503   22.43
 3.240     511   22.61
 3.245     514   22.68
 3.250     511   22.61
 3.255     513   22.64
 3.260     507   22.53
 3.265     510   22.59
 3.270     501   22.37
 3.275     508   22.53
 3.280     532   23.07
 3.285     528   22.97
 3.290     516   22.71
 3.295     513   22.64
 3.300     514   22.67
 3.305     520   22.80
 3.310     526   22.94
 3.315     527   22.96
 3.320     529   22.99
 3.325     539   23.21
 3.330     521   22.82
 3.335     536   23.15
 3.340     525   22.92
 3.345     528   22.98
 3.350     547   23.38
 3.355     529   22.99
 3.360     527   22.96
 3.365     555   23.56
 3.370     556   23.58
 3.375     567   23.82
 3.380     553   23.52
 3.385     568   23.83
 3.390     586   24.21
 3.395     581   24.10
 3.400     596   24.41
 3.405     594   24.38
 3.410     603   24.55
 3.415     605   24.60
 3.420     633   25.17
 3.425     648   25.46
 3.430     641   25.33
 3.435     671   25.91
 3.440     690   26.27
 3.445     688   26.24
 3.450     712   26.69
 3.455     726   26.94
 3.460     721   26.86
 3.465     775   27.84
 3.470     811   28.48
 3.475     819   28.62
 3.480     846   29.08
 3.485     875   29.58
 3.490     894   29.90
 3.495     946   30.76
 3.500     980   31.31
 3.505    1040   32.25
 3.510    1080   32.87
 3.515    1143   33.80
 3.520    1254   35.40
 3.525    1358   36.86
 3.530    1494   38.66
 3.535    1665   40.80
 3.540    1890   43.48
 3.545    2129   46.14
 3.550    2468   49.68
 3.555    2850   53.39
 3.560    2957   54.38
 3.565    2749   52.44
 3.570    2198   46.88
 3.575    1528   39.09
 3.580    1093   33.05
 3.585     854   29.23
 3.590     724   26.91
 3.595     685   26.17
 3.600     653   25.55
 3.605     608   24.66
 3.610     601   24.52
 3.615     585   24.18
 3.620     563   23.74
 3.625     584   24.16
 3.630     565   23.77
 3.635     535   23.14
 3.640     537   23.17
 3.645     545   23.34
 3.650     532   23.07
 3.655     540   23.25
 3.660     562   23.70
 3.665     545   23.35
 3.670     537   23.18
 3.675     553   23.51
 3.680     526   22.94
 3.685     524   22.88
 3.690     537   23.17
 3.695     521   22.83
 3.700     522   22.85
 3.705     531   23.04
 3.710     540   23.23
 3.715     521   22.83
 3.720     530   23.02
 3.725     523   22.87
 3.730     525   22.91
 3.735     511   22.60
 3.740     507   22.52
 3.745     516   22.73
 3.750     510   22.57
 3.755     514   22.68
 3.760     510   22.59
 3.765     508   22.55
 3.770     521   22.83
 3.775     524   22.89
 3.780     515   22.70
 3.785     513   22.65
 3.790     508   22.53
 3.795     517   22.73
 3.800     514   22.67
 3.805     520   22.81
 3.810     507   22.51
 3.815     523   22.88
 3.820     523   22.87
 3.825     518   22.76
 3.830     513   22.65
 3.835     511   22.61
 3.840     517   22.73
 3.845     505   22.48
 3.850     523   22.86
 3.855     524   22.89
 3.860     513   22.65
 3.865     520   22.80
 3.870     519   22.78
 3.875     509   22.55
 3.880     517   22.73
 3.885     519   22.78
 3.890     515   22.70
 3.895     513   22.64
 3.900     525   22.90
 3.905     508   22.53
 3.910     495   22.25
 3.915     514   22.67
 3.920     517   22.74
 3.925     504   22.45
 3.930     504   22.45
 3.935     515   22.69
 3.940     493   22.21
 3.945     491   22.15
 3.950     507   22.53
 3.955     509   22.55
 3.960     512   22.63
 3.965     518   22.77
 3.970     510   22.59
 3.975     506   22.50
 3.980     513   22.66
 3.985     515   22.70
 3.990     503   22.43
 3.995     513   22.64
 4.000     507   22.52
 4.005     504   22.44
 4.010     511   22.62
 4.015     515   22.70
 4.020     513   22.66
 4.025     496   22.28
 4.030     504   22.46
 4.035     516   22.72
 4.040     516   22.72
 4.045     501   22.38
 4.050     506   22.49
 4.055     511   22.60
 4.060     509   22.57
 4.065     499   22.34
 4.070     499   22.33
 4.075     522   22.85
 4.080     512   22.63
 4.085     506   22.49
 4.090     517   22.74
 4.095     503   22.42
 4.100     510   22.59
 4.105     528   22.97
 4.110     518   22.75
 4.115     507   22.51
 4.120     519   22.78
 4.125     514   22.66
 4.130     516   22.72
 4.135     516   22.72
 4.140     506   22.50
 4.145     523   22.87
 4.150     514   22.68
 4.155     531   23.04
 4.160     537   23.18
 4.165     519   22.79
 4.170     523   22.87
 4.175     535   23.13
 4.180     539   23.21
 4.185     545   23.35
 4.190     568   23.83
 4.195     564   23.74
 4.200     582   24.13
 4.205     607   24.64
 4.210     610   24.70
 4.215     625   24.99
 4.220     613   24.75
 4.225     584   24.16
 4.230     565   23.77
 4.235     536   23.16
 4.240     509   22.56
 4.245     512   22.62
 4.250     519   22.79
 4.255     513   22.66
 4.260     504   22.44
 4.265     507   22.51
 4.270     502   22.40
 4.275     493   22.21
 4.280     503   22.42
 4.285     501   22.39
 4.290     514   22.67
 4.295     516   22.72
 4.300     492   22.18
 4.305     491   22.17
 4.310     499   22.34
 4.315     502   22.41
 4.320     510   22.58
 4.325     495   22.25
 4.330     501   22.38
 4.335     507   22.52
 4.340     499   22.34
 4.345     497   22.29
 4.350     497   22.30
 4.355     495   22.26
 4.360     499   22.34
 4.365     508   22.53
 4.370     505   22.47
 4.375     499   22.34
 4.380     492   22.19
 4.385     509   22.56
 4.390     501   22.37
 4.395     507   22.51
 4.400     504   22.45
 4.405     482   21.95
 4.410     497   22.29
 4.415     492   22.18
 4.420     503   22.43
 4.425     487   22.07
 4.430     497   22.29
 4.435     502   22.41
 4.440     497   22.30
 4.445     495   22.24
 4.450     499   22.34
 4.455     523   22.87
 4.460     499   22.34
 4.465     491   22.15
 4.470     511   22.61
 4.475     511   22.60
 4.480     492   22.18
 4.485     501   22.37
 4.490     489   22.11
 4.495     486   22.05
 4.500     486   22.05
 4.505     501   22.37
 4.510     494   22.23
 4.515     474   21.77
 4.520     487   22.07
 4.525     508   22.53
 4.530     509   22.56
 4.535     488   22.10
 4.540     506   22.49
 4.545     496   22.28
 4.550     488   22.09
 4.555     502   22.41
 4.560     494   22.22
 4.565     489   22.12
 4.570     505   22.47
 4.575     506   22.48
 4.580     491   22.16
 4.585     502   22.41
 4.590     504   22.46
 4.595     501   22.37
 4.600     498   22.32
 4.605     482   21.95
 4.610     496   22.27
 4.615     513   22.66
 4.620     502   22.40
 4.625     494   22.23
 4.630     504   22.45
 4.635     502   22.41
 4.640     494   22.22
 4.645     477   21.84
 4.650     489   22.10
 4.655     513   22.66
 4.660     510   22.58
 4.665     500   22.36
 4.670     512   22.63
 4.675     499   22.33
 4.680     492   22.18
 4.685     493   22.20
 4.690     489   22.11
 4.695     500   22.35
 4.700     491   22.16
 4.705     494   22.23
 4.710     494   22.22
 4.715     506   22.49
 4.720     505   22.47
 4.725     494   22.22
 4.730     511   22.60
 4.735     505   22.47
 4.740     492   22.19
 4.745     508   22.54
 4.750     493   22.21
 4.755     485   22.03
 4.760     499   22.33
 4.765     502   22.40
 4.770     496   22.28
 4.775     485   22.01
 4.780     495   22.26
 4.785     495   22.24
 4.790     504   22.46
 4.795     505   22.46
 4.800     503   22.42
 4.805     504   22.45
 4.810     511   22.61
 4.815     500   22.37
 4.820     494   22.22
 4.825     504   22.46
 4.830     498   22.32
 4.835     500   22.36
 4.840     505   22.47
 4.845     509   22.57
 4.850     507   22.51
 4.855     507   22.51
 4.860     513   22.65
 4.865     503   22.44
 4.870     503   22.44
 4.875     493   22.20
 4.880     507   22.52
 4.885     512   22.64
 4.890     505   22.48
 4.895     510   22.58
 4.900     501   22.37
 4.905     505   22.47
 4.910     502   22.40
 4.915     512   22.64
 4.920     520   22.81
 4.925     504   22.45
 4.930     519   22.77
 4.935     521   22.83
 4.940     521   22.82
 4.945     529   23.01
 4.950     531   23.04
 4.955     541   23.26
 4.960     547   23.39
 4.965     561   23.68
 4.970     578   24.05
 4.975     575   23.97
 4.980     602   24.54
 4.985     645   25.41
 4.990     666   25.81
 4.995     689   26.24
 5.000     721   26.85
 5.005     761   27.58
 5.010     780   27.93
 5.015     793   28.17
 5.020     843   29.03
 5.025     897   29.95
 5.030     934   30.56
 5.035    1020   31.94
 5.040    1065   32.64
 5.045    1144   33.83
 5.050    1252   35.39
 5.055    1330   36.47
 5.060    1440   37.94
 5.065    1609   40.11
 5.070    1801   42.44
 5.075    2053   45.31
 5.080    2387   48.86
 5.085    2789   52.82
 5.090    3347   57.85
 5.095    3965   62.97
 5.100    4461   66.79
 5.105    4419   66.48
 5.110    3509   59.24
 5.115    2364   48.62
 5.120    1562   39.52
 5.125    1115   33.39
 5.130     899   29.99
 5.135     784   27.99
 5.140     731   27.04
 5.145     671   25.90
 5.150     641   25.32
 5.155     636   25.22
 5.160     607   24.64
 5.165     580   24.09
 5.170     571   23.89
 5.175     574   23.95
 5.180     572   23.92
 5.185     551   23.48
 5.190     545   23.34
 5.195     549   23.42
 5.200     530   23.02
 5.205     531   23.04
 5.210     548   23.41
 5.215     537   23.18
 5.220     531   23.03
 5.225     538   23.20
 5.230     521   22.83
 5.235     538   23.19
 5.240     542   23.28
 5.245     534   23.11
 5.250     519   22.78
 5.255     488   22.10
 5.260     517   22.73
 5.265     531   23.05
 5.270     517   22.74
 5.275     517   22.74
 5.280     519   22.78
 5.285     513   22.64
 5.290     519   22.78
 5.295     528   22.98
 5.300     514   22.67
 5.305     513   22.64
 5.310     507   22.51
 5.315     504   22.45
 5.320     502   22.41
 5.325     509   22.57
 5.330     510   22.59
 5.335     504   22.44
 5.340     510   22.58
 5.345     515   22.69
 5.350     515   22.69
 5.355     508   22.54
 5.360     521   22.83
 5.365     506   22.50
 5.370     485   22.03
 5.375     494   22.23
 5.380     509   22.56
 5.385     508   22.54
 5.390     495   22.25
 5.395     496   22.27
 5.400     500   22.36
 5.405     498   22.31
 5.410     509   22.57
 5.415     512   22.63
 5.420     505   22.46
 5.425     502   22.41
 5.430     516   22.72
 5.435     507   22.52
 5.440     501   22.38
 5.445     501   22.38
 5.450     514   22.66
 5.455     518   22.75
 5.460     509   22.57
 5.465     537   23.17
 5.470     517   22.73
 5.475     501   22.38
 5.480     496   22.26
 5.485     497   22.28
 5.490     500   22.36
 5.495     497   22.29
 5.500     492   22.19
 5.505     506   22.50
 5.510     512   22.62
 5.515     502   22.40
 5.520     498   22.32
 5.525     487   22.08
 5.530     500   22.36
 5.535     502   22.41
 5.540     512   22.62
 5.545     513   22.64
 5.550     500   22.36
 5.555     512   22.63
 5.560     509   22.57
 5.565     507   22.51
 5.570     495   22.24
 5.575     494   22.22
 5.580     516   22.71
 5.585     527   22.95
 5.590     511   22.60
 5.595     491   22.15
 5.600     492   22.19
 5.605     502   22.41
 5.610     511   22.61
 5.615     492   22.18
 5.620     510   22.58
 5.625     523   22.87
 5.630     523   22.88
 5.635     515   22.68
 5.640     518   22.75
 5.645     530   23.02
 5.650     535   23.14
 5.655     538   23.20
 5.660     540   23.24
 5.665     546   23.37
 5.670     538   23.19
 5.675     544   23.33
 5.680     561   23.69
 5.685     572   23.91
 5.690     569   23.86
 5.695     578   24.04
 5.700     595   24.40
 5.705     616   24.83
 5.710     636   25.21
 5.715     673   25.93
 5.720     699   26.44
 5.725     704   26.53
 5.730     713   26.71
 5.735     720   26.84
 5.740     715   26.74
 5.745     724   26.91
 5.750     709   26.62
 5.755     672   25.92
 5.760     657   25.63
 5.765     630   25.10
 5.770     588   24.25
 5.775     563   23.73
 5.780     548   23.40
 5.785     542   23.29
 5.790     532   23.07
 5.795     526   22.95
 5.800     521   22.82
 5.805     518   22.77
 5.810     534   23.11
 5.815     525   22.91
 5.820     529   22.99
 5.825     525   22.92
 5.830     519   22.78
 5.835     529   22.99
 5.840     524   22.89
 5.845     523   22.87
 5.850     521   22.83
 5.855     524   22.89
 5.860     515   22.69
 5.865     512   22.62
 5.870     517   22.75
 5.875     523   22.88
 5.880     522   22.84
 5.885     508   22.55
 5.890     518   22.77
 5.895     529   23.00
 5.900     508   22.54
 5.905     519   22.79
 5.910     519   22.78
 5.915     539   23.23
 5.920     536   23.16
 5.925     532   23.07
 5.930     521   22.84
 5.935     523   22.87
 5.940     538   23.19
 5.945     530   23.03
 5.950     527   22.95
 5.955     528   22.99
 5.960     539   23.22
 5.965     523   22.87
 5.970     526   22.92
 5.975     545   23.34
 5.980     551   23.47
 5.985     560   23.67
 5.990     577   24.02
 5.995     574   23.96
 6.000     584   24.17
 6.005     612   24.73
 6.010     646   25.42
 6.015     673   25.95
 6.020     685   26.16
 6.025     734   27.09
 6.030     789   28.09
 6.035     822   28.68
 6.040     872   29.53
 6.045     940   30.66
 6.050    1012   31.81
 6.055    1092   33.05
 6.060    1179   34.34
 6.065    1272   35.66
 6.070    1414   37.61
 6.075    1589   39.86
 6.080    1819   42.65
 6.085    2080   45.61
 6.090    2397   48.96
 6.095    2805   52.96
 6.100    3203   56.59
 6.105    3557   59.64
 6.110    3747   61.22
 6.115    3745   61.20
 6.120    3614   60.12
 6.125    3435   58.61
 6.130    3130   55.95
 6.135    2682   51.79
 6.140    2213   47.05
 6.145    1737   41.68
 6.150    1359   36.86
 6.155    1106   33.25
 6.160     920   30.33
 6.165     823   28.69
 6.170     793   28.16
 6.175     728   26.99
 6.180     676   26.00
 6.185     671   25.90
 6.190     647   25.43
 6.195     625   25.00
 6.200     592   24.33
 6.205     587   24.22
 6.210     579   24.07
 6.215     562   23.71
 6.220     585   24.18
 6.225     577   24.01
 6.230     559   23.64
 6.235     564   23.75
 6.240     560   23.67
 6.245     551   23.47
 6.250     540   23.24
 6.255     541   23.26
 6.260     555   23.55
 6.265     564   23.74
 6.270     547   23.39
 6.275     533   23.09
 6.280     550   23.46
 6.285     544   23.33
 6.290     562   23.70
 6.295     555   23.56
 6.300     545   23.35
 6.305     563   23.72
 6.310     560   23.66
 6.315     554   23.53
 6.320     575   23.99
 6.325     585   24.18
